Time (s);PKPK (V);RMS (V);Frequency (Hz)
1.740.571.401.083;3.28;2.23;1000
1.740.571.403.564;3.2;2.23;1000
1.740.571.405.682;3.2;2.23;1000
1.740.571.407.797;3.2;2.22;1000
1.740.571.409.916;3.2;2.22;1000
1.740.571.412.090;3.2;2.23;1000
1.740.571.414.432;3.2;2.22;1000
1.740.571.416.648;3.2;2.22;1000
1.740.571.418.765;3.2;2.23;1000
1.740.571.420.920;3.28;2.23;1000
1.740.571.423.039;3.2;2.22;1000
1.740.571.425.159;3.2;2.22;1000
1.740.571.427.339;3.2;2.23;1000
1.740.571.429.461;3.2;2.22;999.99
1.740.571.431.628;3.28;2.22;1000
1.740.571.433.746;3.2;2.22;1000
1.740.571.435.814;3.2;2.23;1000
1.740.571.437.999;3.28;2.23;1000
1.740.571.440.154;3.28;2.23;1000
1.740.571.442.394;3.28;2.22;1000
1.740.571.444.573;3.28;2.22;1000
1.740.571.446.787;3.2;2.23;1000
1.740.571.448.967;3.2;2.22;1000
1.740.571.451.083;3.2;2.22;1000
1.740.571.453.201;3.2;2.23;1000
1.740.571.455.320;3.2;2.22;1000
1.740.571.457.494;3.2;2.22;1000
1.740.571.459.674;3.28;2.23;1000
1.740.571.461.947;3.28;2.22;1000
1.740.571.464.066;3.28;2.22;1000
1.740.571.466.183;3.2;2.23;1000
1.740.571.468.366;3.2;2.22;1000
1.740.571.470.541;3.28;2.23;1000
1.740.571.472.757;3.28;2.23;1000
1.740.571.474.911;3.2;2.23;1000
1.740.571.477.152;3.28;2.23;1000
1.740.571.479.305;3.28;2.23;1000
1.740.571.481.463;3.28;2.23;1000
1.740.571.483.680;3.2;2.22;1000
1.740.571.485.864;3.2;2.22;1000
1.740.571.488.095;3.2;2.23;1000
1.740.571.490.314;3.2;2.22;1000
1.740.571.492.432;3.28;2.23;1000
1.740.571.494.589;3.28;2.22;1000
1.740.571.496.806;3.28;2.22;1000
1.740.571.498.987;3.28;2.23;1000
1.740.571.501.179;3.28;2.22;1000
1.740.571.503.302;3.2;2.22;1000
1.740.571.505.514;3.2;2.22;1000
1.740.571.507.632;3.2;2.22;1000
1.740.571.509.810;3.28;2.22;1000
1.740.571.511.927;3.28;2.22;1000
1.740.571.514.105;3.28;2.22;1000
1.740.571.516.259;3.2;2.23;1000
1.740.571.518.498;3.2;2.22;1000
1.740.571.520.615;3.2;2.22;1000
1.740.571.522.833;3.2;2.22;1000
1.740.571.524.956;3.2;2.22;1000
1.740.571.527.076;3.28;2.23;1000
1.740.571.529.205;3.28;2.22;1000
1.740.571.531.420;3.2;2.22;1000
1.740.571.533.598;3.2;2.22;1000
1.740.571.535.668;3.2;2.22;1000
1.740.571.537.830;3.2;2.22;1000
1.740.571.540.010;3.2;2.22;1000
1.740.571.542.128;3.2;2.22;1000
1.740.571.544.244;3.2;2.23;1000
1.740.571.546.399;3.2;2.22;1000
1.740.571.548.578;3.2;2.22;1000
1.740.571.550.656;3.2;2.23;1000
1.740.571.552.810;3.2;2.22;1000
1.740.571.554.930;3.2;2.22;1000
1.740.571.557.085;3.2;2.22;1000
1.740.571.559.202;3.2;2.22;1000
1.740.571.561.319;3.28;2.23;1000
1.740.571.563.440;3.2;2.22;1000
1.740.571.565.593;3.2;2.22;999.99
1.740.571.567.757;3.28;2.22;999.99
1.740.571.569.888;3.2;2.22;1000
1.740.571.572.044;3.2;2.22;1000
1.740.571.574.221;3.28;2.22;1000
1.740.571.576.340;3.2;2.22;1000
1.740.571.578.556;3.2;2.22;1000
1.740.571.580.712;3.2;2.22;1000
1.740.571.582.869;3.28;2.22;1000
1.740.571.584.988;3.2;2.22;1000
1.740.571.587.144;3.2;2.22;1000
1.740.571.589.303;3.28;2.22;1000
1.740.571.591.418;3.2;2.22;1000
1.740.571.593.498;3.28;2.22;999.99
1.740.571.595.713;3.2;2.22;1000
1.740.571.597.871;3.28;2.22;1000
1.740.571.600.048;3.2;2.22;1000
1.740.571.602.204;3.2;2.22;999.99
1.740.571.604.323;3.2;2.22;1000
1.740.571.606.481;3.2;2.22;1000
1.740.571.608.661;3.2;2.23;1000
1.740.571.610.832;3.28;2.22;1000
1.740.571.612.989;3.2;2.23;1000
1.740.571.615.113;3.36;2.23;1000
1.740.571.617.284;3.2;2.22;1000
1.740.571.619.508;3.2;2.22;1000
1.740.571.621.685;3.2;2.22;1000
1.740.571.623.858;3.28;2.22;1000
1.740.571.626.078;3.2;2.22;1000
1.740.571.628.194;3.2;2.23;1000
1.740.571.630.369;3.28;2.22;1000
1.740.571.632.488;3.28;2.23;1000
1.740.571.634.727;3.2;2.22;1000
1.740.571.636.942;3.28;2.22;1000
1.740.571.639.121;3.28;2.22;1000
1.740.571.641.236;3.36;2.22;1000
1.740.571.643.475;3.2;2.22;999.99
1.740.571.645.653;3.28;2.22;1000
1.740.571.647.833;3.2;2.22;1000
1.740.571.650.046;3.36;2.23;1000
1.740.571.652.324;3.36;2.22;1000
1.740.571.654.442;3.36;2.22;1000
1.740.571.656.620;3.36;2.22;1000
1.740.571.658.838;3.36;2.22;1000
1.740.571.661.036;3.36;2.22;1000
1.740.571.663.251;3.36;2.22;1000
1.740.571.665.487;3.36;2.22;1000
1.740.571.667.726;3.36;2.22;1000
1.740.571.669.908;3.36;2.22;1000
1.740.571.672.123;3.36;2.22;1000
1.740.571.674.301;3.36;2.22;1000
1.740.571.676.420;3.36;2.22;1000
1.740.571.678.593;3.36;2.22;1000
1.740.571.680.771;3.36;2.22;1000
1.740.571.682.986;3.36;2.23;1000
1.740.571.685.148;3.36;2.22;1000
1.740.571.687.268;3.36;2.22;1000
1.740.571.689.483;3.36;2.23;1000
1.740.571.691.717;3.36;2.22;1000
1.740.571.693.916;3.36;2.22;1000
1.740.571.696.094;3.36;2.22;1000
1.740.571.698.314;3.36;2.22;1000
1.740.571.700.648;3.36;2.22;1000
1.740.571.702.925;3.36;2.22;1000
1.740.571.705.023;3.36;2.22;1000
1.740.571.707.266;3.36;2.22;1000
1.740.571.709.539;3.36;2.22;1000
1.740.571.711.755;3.36;2.22;999.99
1.740.571.713.975;3.36;2.22;1000
1.740.571.716.131;3.36;2.22;1000
1.740.571.718.250;3.36;2.22;1000
1.740.571.720.471;3.36;2.22;999.99
1.740.571.722.582;3.36;2.22;1000
1.740.571.724.798;3.36;2.23;1000
1.740.571.726.917;3.36;2.22;1000
1.740.571.729.156;3.36;2.22;1000
1.740.571.731.272;3.36;2.22;1000
1.740.571.733.510;3.36;2.22;999.99
1.740.571.735.726;3.28;2.22;1000
1.740.571.737.924;3.36;2.22;1000
1.740.571.740.102;3.36;2.22;1000
1.740.571.742.340;3.36;2.22;1000
1.740.571.744.638;3.36;2.22;1000
1.740.571.746.740;3.36;2.22;1000
1.740.571.749.054;3.36;2.22;1000
1.740.571.751.292;3.36;2.23;1000
1.740.571.753.509;3.36;2.22;1000
1.740.571.755.787;3.36;2.23;1000
1.740.571.758.064;3.36;2.23;1000
1.740.571.760.280;3.36;2.22;1000
1.740.571.762.500;3.36;2.22;1000
1.740.571.764.619;3.28;2.22;1000
1.740.571.766.796;3.36;2.22;1000
1.740.571.768.973;3.36;2.22;1000
1.740.571.771.210;3.36;2.22;999.99
1.740.571.773.425;3.36;2.22;1000
1.740.571.775.645;3.28;2.22;1000
1.740.571.777.822;3.36;2.22;1000
1.740.571.779.941;3.36;2.22;1000
1.740.571.782.215;3.36;2.22;1000
1.740.571.784.334;3.36;2.22;1000
1.740.571.786.512;3.28;2.22;1000
1.740.571.788.689;3.36;2.23;1000
1.740.571.790.906;3.36;2.22;1000
1.740.571.793.122;3.36;2.22;999.99
1.740.571.795.279;3.36;2.22;1000
1.740.571.797.578;3.36;2.21;1000
1.740.571.799.779;3.36;2.22;1000
1.740.571.802.017;3.36;2.22;1000
1.740.571.804.231;3.36;2.22;1000
1.740.571.806.570;3.36;2.22;1000
1.740.571.808.688;3.36;2.22;1000
1.740.571.810.867;3.36;2.22;1000
1.740.571.813.050;3.36;2.22;1000
1.740.571.815.339;3.36;2.22;1000
1.740.571.817.519;3.36;2.22;1000
1.740.571.819.734;3.36;2.22;1000
1.740.571.822.013;3.36;2.22;1000
1.740.571.824.191;3.36;2.22;1000
1.740.571.826.409;3.36;2.22;1000
1.740.571.828.564;3.36;2.22;1000
1.740.571.830.803;3.28;2.21;1000
1.740.571.833.042;3.36;2.22;1000
1.740.571.835.161;3.36;2.22;1000
1.740.571.837.437;3.36;2.22;1000
1.740.571.839.675;3.36;2.22;1000
1.740.571.841.852;3.28;2.22;1000
1.740.571.843.968;3.36;2.22;1000
1.740.571.846.088;3.2;2.22;1000
1.740.571.848.323;3.28;2.22;1000
1.740.571.850.480;3.28;2.22;1000
1.740.571.852.696;3.36;2.22;1000
1.740.571.854.814;3.36;2.22;1000
1.740.571.857.091;3.2;2.22;1000
1.740.571.859.271;3.28;2.22;1000
1.740.571.861.391;3.2;2.22;1000
1.740.571.863.547;3.2;2.22;1000
1.740.571.865.760;3.28;2.23;1000
1.740.571.867.941;3.2;2.22;1000
1.740.571.870.055;3.28;2.22;1000
1.740.571.872.212;3.28;2.22;1000
1.740.571.874.430;3.2;2.22;1000
1.740.571.876.590;3.28;2.22;1000
1.740.571.878.825;3.28;2.22;1000
1.740.571.881.102;3.36;2.22;1000
1.740.571.883.281;3.36;2.22;1000
1.740.571.885.439;3.28;2.22;1000
1.740.571.887.658;3.28;2.22;1000
1.740.571.890.019;3.36;2.22;1000
1.740.571.892.134;3.36;2.22;1000
1.740.571.894.410;3.36;2.22;1000
1.740.571.896.688;3.2;2.22;1000
1.740.571.898.803;3.36;2.22;1000
1.740.571.901.082;3.28;2.22;1000
1.740.571.903.299;3.28;2.22;1000
1.740.571.905.458;3.36;2.22;1000
1.740.571.907.675;3.28;2.22;1000
1.740.571.909.854;3.28;2.22;1000
1.740.571.912.129;3.36;2.23;1000
1.740.571.914.307;3.36;2.22;1000
1.740.571.916.608;3.28;2.22;999.99
1.740.571.918.845;3.28;2.22;1000
1.740.571.921.001;3.2;2.23;999.99
1.740.571.923.218;3.36;2.22;1000
1.740.571.925.457;3.28;2.22;1000
1.740.571.927.574;3.28;2.22;999.99
1.740.571.929.850;3.28;2.22;1000
1.740.571.932.130;3.36;2.22;1000
1.740.571.934.372;3.28;2.22;1000
1.740.571.936.625;3.28;2.22;999.99
1.740.571.938.842;3.36;2.22;999.99
1.740.571.941.022;3.28;2.23;1000
1.740.571.943.178;3.28;2.22;1000
1.740.571.945.335;3.36;2.23;1000
1.740.571.947.673;3.28;2.22;1000
1.740.571.949.855;3.36;2.23;999.99
1.740.571.951.969;3.28;2.22;1000
1.740.571.954.093;3.36;2.22;1000
1.740.571.956.382;3.36;2.22;1000
1.740.571.958.720;3.28;2.22;1000
1.740.571.960.879;3.28;2.22;1000
1.740.571.963.010;3.28;2.22;1000
1.740.571.965.353;3.28;2.22;999.99
1.740.571.967.532;3.36;2.22;1000
1.740.571.969.830;3.28;2.22;1000
1.740.571.972.107;3.36;2.21;1000
1.740.571.974.386;3.28;2.22;999.99
1.740.571.976.604;3.28;2.22;1000
1.740.571.978.721;3.2;2.21;1000
1.740.571.980.904;3.2;2.22;1000
1.740.571.983.055;3.36;2.21;1000
1.740.571.985.355;3.28;2.22;1000
1.740.571.987.569;3.36;2.21;1000
1.740.571.989.768;3.36;2.22;1000
1.740.571.992.006;3.36;2.22;1000
1.740.571.994.122;3.36;2.23;1000
1.740.571.996.362;3.2;2.22;1000
1.740.571.998.638;3.36;2.22;1000
1.740.572.000.798;3.36;2.22;1000
1.740.572.002.973;3.28;2.21;1000
1.740.572.005.191;3.28;2.22;1000
1.740.572.007.371;3.28;2.21;1000
1.740.572.009.550;3.36;2.22;1000
1.740.572.011.762;3.36;2.22;1000
1.740.572.014.007;3.36;2.22;1000
1.740.572.016.247;3.28;2.22;1000
1.740.572.018.578;3.28;2.22;1000
1.740.572.020.794;3.28;2.22;1000
1.740.572.023.035;3.36;2.22;1000
1.740.572.025.270;3.28;2.22;999.99
1.740.572.027.491;3.28;2.22;1000
1.740.572.029.666;3.28;2.22;1000
1.740.572.031.883;3.28;2.22;1000
1.740.572.034.122;3.28;2.22;1000
1.740.572.036.359;3.28;2.22;1000
1.740.572.038.540;3.28;2.22;1000
1.740.572.040.775;3.36;2.22;1000
1.740.572.043.031;3.36;2.22;1000
1.740.572.045.211;3.28;2.22;1000
1.740.572.047.427;3.28;2.22;1000
1.740.572.049.545;3.36;2.22;1000
1.740.572.051.722;3.36;2.22;1000
1.740.572.053.999;3.36;2.22;1000
1.740.572.056.216;3.36;2.22;1000
1.740.572.058.455;3.36;2.22;1000
1.740.572.060.734;3.36;2.22;1000
1.740.572.063.016;3.28;2.22;1000
1.740.572.065.253;3.2;2.21;1000
1.740.572.067.369;3.2;2.23;999.99
1.740.572.069.582;3.36;2.22;1000
1.740.572.071.701;3.28;2.22;999.99
1.740.572.073.922;3.28;2.22;1000
1.740.572.076.097;3.36;2.22;1000
1.740.572.078.373;3.28;2.22;1000
1.740.572.080.590;3.2;2.22;1000
1.740.572.082.807;3.36;2.21;1000
1.740.572.085.047;3.36;2.22;1000
1.740.572.087.263;3.28;2.22;1000
1.740.572.089.562;3.28;2.22;1000
1.740.572.091.681;3.28;2.22;1000
1.740.572.093.860;3.36;2.22;1000
1.740.572.096.137;3.28;2.23;1000
1.740.572.098.433;3.36;2.23;1000
1.740.572.100.612;3.28;2.22;999.99
1.740.572.102.889;3.36;2.23;999.99
1.740.572.105.108;3.36;2.22;1000
1.740.572.107.285;3.28;2.22;1000
1.740.572.109.502;3.28;2.22;1000
1.740.572.111.679;3.28;2.22;1000
1.740.572.113.919;3.28;2.23;1000
1.740.572.116.099;3.28;2.22;999.99
1.740.572.118.374;3.36;2.22;1000
1.740.572.120.590;3.28;2.22;1000
1.740.572.122.771;3.28;2.22;1000
1.740.572.124.982;3.28;2.22;1000
1.740.572.127.206;3.28;2.22;1000
1.740.572.129.443;3.36;2.22;1000
1.740.572.131.596;3.28;2.22;999.99
1.740.572.133.837;3.28;2.22;1000
1.740.572.136.015;3.36;2.22;1000
1.740.572.138.230;3.36;2.22;1000
1.740.572.140.412;3.28;2.22;1000
1.740.572.142.604;3.28;2.22;1000
1.740.572.144.881;3.28;2.22;1000
1.740.572.147.063;3.28;2.23;1000
1.740.572.149.263;3.28;2.23;1000
1.740.572.151.475;3.28;2.22;1000
1.740.572.153.715;3.36;2.22;1000
1.740.572.155.869;3.36;2.23;1000
1.740.572.158.047;3.28;2.22;1000
1.740.572.160.227;3.36;2.22;999.99
1.740.572.162.503;3.36;2.22;1000
1.740.572.164.681;3.36;2.23;999.99
1.740.572.166.920;3.28;2.22;1000
1.740.572.169.099;3.28;2.22;1000
1.740.572.171.213;3.28;2.22;1000
1.740.572.173.369;3.36;2.22;1000
1.740.572.175.489;3.36;2.22;1000
1.740.572.177.663;3.36;2.22;1000
1.740.572.179.942;3.36;2.22;1000
1.740.572.182.059;3.28;2.22;1000
1.740.572.184.238;3.36;2.22;1000
1.740.572.186.576;3.28;2.22;1000
1.740.572.188.875;3.36;2.22;1000
1.740.572.191.112;3.36;2.22;1000
1.740.572.193.350;3.28;2.22;1000
1.740.572.195.605;3.36;2.23;1000
1.740.572.197.728;3.28;2.22;1000
1.740.572.199.964;3.36;2.22;1000
1.740.572.202.177;3.36;2.22;1000
1.740.572.204.455;3.36;2.22;1000
1.740.572.206.740;3.36;2.22;1000
1.740.572.208.920;3.28;2.22;1000
1.740.572.211.128;3.28;2.22;1000
1.740.572.213.309;3.28;2.21;1000
1.740.572.215.547;3.28;2.22;1000
1.740.572.217.846;3.28;2.22;1000
1.740.572.220.003;3.36;2.22;1000
1.740.572.222.219;3.36;2.22;1000
1.740.572.224.375;3.28;2.23;1000
1.740.572.226.557;3.36;2.22;1000
1.740.572.228.733;3.28;2.22;1000
1.740.572.230.849;3.36;2.22;1000
1.740.572.233.091;3.28;2.22;1000
1.740.572.235.324;3.28;2.22;1000
1.740.572.237.659;3.36;2.22;1000
1.740.572.239.962;3.28;2.22;1000
1.740.572.242.139;3.36;2.21;1000
1.740.572.244.355;3.2;2.22;1000
1.740.572.246.571;3.2;2.22;1000
1.740.572.248.751;3.28;2.22;1000
1.740.572.251.032;3.36;2.22;1000
1.740.572.253.209;3.28;2.22;1000
1.740.572.255.445;3.28;2.22;1000
1.740.572.257.560;3.36;2.22;1000
1.740.572.259.739;3.28;2.22;999.99
1.740.572.261.916;3.28;2.22;1000
1.740.572.264.090;3.36;2.22;1000
1.740.572.266.335;3.36;2.22;1000
1.740.572.268.569;3.28;2.22;1000
1.740.572.270.723;3.28;2.22;1000
1.740.572.272.885;3.28;2.22;999.99
1.740.572.275.100;3.36;2.22;1000
1.740.572.277.216;3.28;2.22;1000
1.740.572.279.378;3.28;2.23;1000
1.740.572.281.529;3.36;2.22;1000
1.740.572.283.749;3.28;2.22;1000
1.740.572.285.965;3.28;2.21;1000
1.740.572.288.161;3.28;2.22;1000
1.740.572.290.346;3.28;2.22;1000
1.740.572.292.558;3.28;2.22;1000
1.740.572.294.835;3.28;2.22;1000
1.740.572.297.076;3.28;2.22;999.99
1.740.572.299.312;3.2;2.22;1000
1.740.572.301.554;3.28;2.22;1000
1.740.572.303.730;3.28;2.22;1000
1.740.572.305.945;3.28;2.22;1000
1.740.572.308.062;3.2;2.21;1000
1.740.572.310.181;3.28;2.22;1000
1.740.572.312.294;3.28;2.22;1000
1.740.572.314.475;3.28;2.22;1000
1.740.572.316.634;3.2;2.22;1000
1.740.572.318.906;3.36;2.23;1000
1.740.572.321.146;3.28;2.22;1000
1.740.572.323.268;3.28;2.22;1000
1.740.572.325.517;3.28;2.23;1000
1.740.572.327.702;3.36;2.22;1000
1.740.572.329.941;3.28;2.22;1000
1.740.572.332.173;3.28;2.22;1000
1.740.572.334.352;3.28;2.22;999.99
1.740.572.336.650;3.2;2.22;1000
1.740.572.338.769;3.36;2.22;1000
1.740.572.340.947;3.28;2.22;1000
1.740.572.343.282;3.28;2.22;1000
1.740.572.345.621;3.28;2.22;1000
1.740.572.347.899;3.28;2.22;1000
1.740.572.350.082;3.36;2.22;1000
1.740.572.352.352;3.36;2.22;1000
1.740.572.354.654;3.28;2.22;1000
1.740.572.356.892;3.36;2.21;1000
1.740.572.359.227;3.2;2.22;1000
1.740.572.361.446;3.28;2.22;1000
1.740.572.363.687;3.28;2.21;1000
1.740.572.365.961;3.36;2.21;1000
1.740.572.368.299;3.28;2.22;1000
1.740.572.370.543;3.28;2.21;1000
1.740.572.372.717;3.36;2.22;1000
1.740.572.374.892;3.28;2.22;1000
1.740.572.377.074;3.36;2.22;1000
1.740.572.379.290;3.28;2.22;1000
1.740.572.381.544;3.28;2.22;1000
1.740.572.383.725;3.28;2.22;1000
1.740.572.385.939;3.2;2.22;1000
1.740.572.388.221;3.36;2.22;1000
1.740.572.390.496;3.28;2.21;1000
1.740.572.392.740;3.28;2.22;999.99
1.740.572.394.914;3.36;2.22;1000
1.740.572.397.095;3.28;2.22;1000
1.740.572.399.209;3.36;2.22;1000
1.740.572.401.388;3.28;2.22;1000
1.740.572.403.602;3.28;2.22;1000
1.740.572.405.757;3.36;2.22;1000
1.740.572.407.915;3.28;2.22;1000
1.740.572.410.094;3.28;2.22;999.99
1.740.572.412.249;3.28;2.22;1000
1.740.572.414.375;3.36;2.23;1000
1.740.572.416.550;3.28;2.21;1000
1.740.572.418.664;3.28;2.22;999.99
1.740.572.420.821;3.28;2.22;1000
1.740.572.422.997;3.36;2.22;1000
1.740.572.425.177;3.36;2.22;1000
1.740.572.427.354;3.28;2.22;1000
1.740.572.429.469;3.36;2.22;1000
1.740.572.431.647;3.28;2.22;1000
1.740.572.433.983;3.36;2.22;999.99
1.740.572.436.141;3.36;2.22;1000
1.740.572.438.298;3.2;2.22;1000
1.740.572.440.578;3.36;2.22;1000
1.740.572.442.756;3.36;2.22;1000
1.740.572.444.995;3.2;2.22;1000
1.740.572.447.107;3.36;2.22;1000
1.740.572.449.284;3.28;2.22;1000
1.740.572.451.563;3.2;2.23;1000
1.740.572.453.884;3.2;2.21;999.99
1.740.572.456.039;3.2;2.22;1000
1.740.572.458.338;3.28;2.22;1000
1.740.572.460.453;3.28;2.22;1000
1.740.572.462.576;3.28;2.22;1000
1.740.572.464.746;3.28;2.21;1000
1.740.572.466.928;3.28;2.22;999.99
1.740.572.469.060;3.28;2.22;1000
1.740.572.471.218;3.28;2.22;1000
1.740.572.473.396;3.2;2.22;1000
1.740.572.475.528;3.28;2.22;999.99
1.740.572.477.752;3.28;2.22;1000
1.740.572.479.908;3.28;2.22;1000
1.740.572.482.190;3.36;2.22;1000
1.740.572.484.404;3.28;2.22;999.99
1.740.572.486.621;3.28;2.22;1000
1.740.572.488.778;3.28;2.22;1000
1.740.572.490.854;3.2;2.22;999.99
1.740.572.493.041;3.28;2.22;1000
1.740.572.495.250;3.28;2.22;1000
1.740.572.497.489;3.28;2.21;1000
1.740.572.499.786;3.36;2.22;1000
1.740.572.502.064;3.28;2.22;1000
1.740.572.504.240;3.28;2.22;1000
1.740.572.506.398;3.2;2.22;1000
1.740.572.508.636;3.28;2.21;999.99
1.740.572.510.795;3.2;2.22;1000
1.740.572.512.953;3.2;2.22;1000
1.740.572.515.137;3.28;2.22;1000
1.740.572.517.266;3.28;2.22;1000
1.740.572.519.483;3.36;2.22;999.99
1.740.572.521.762;3.28;2.22;1000
1.740.572.523.937;3.2;2.22;999.99
1.740.572.526.216;3.2;2.22;1000
1.740.572.528.301;3.2;2.22;1000
1.740.572.530.493;3.2;2.22;1000
1.740.572.532.706;3.36;2.22;1000
1.740.572.534.824;3.28;2.21;1000
1.740.572.536.981;3.28;2.22;999.99
1.740.572.539.140;3.28;2.22;1000
1.740.572.541.357;3.2;2.21;1000
1.740.572.543.634;3.36;2.22;1000
1.740.572.545.813;3.28;2.22;1000
1.740.572.547.989;3.28;2.22;1000
1.740.572.550.229;3.36;2.22;1000
1.740.572.552.345;3.36;2.22;1000
1.740.572.554.565;3.28;2.22;1000
1.740.572.556.780;3.36;2.22;1000
1.740.572.558.936;3.28;2.22;1000
1.740.572.561.153;3.2;2.22;1000
1.740.572.563.342;3.28;2.22;1000
1.740.572.565.570;3.36;2.22;1000
1.740.572.567.788;3.28;2.22;1000
1.740.572.569.864;3.36;2.22;1000
1.740.572.572.020;3.36;2.22;1000
1.740.572.574.238;3.28;2.22;1000
1.740.572.576.517;3.28;2.22;1000
1.740.572.578.698;3.2;2.22;1000
1.740.572.580.872;3.28;2.22;1000
1.740.572.583.048;3.36;2.22;1000
1.740.572.585.266;3.2;2.22;1000
1.740.572.587.484;3.28;2.22;1000
1.740.572.589.722;3.36;2.23;1000
1.740.572.591.878;3.2;2.21;1000
1.740.572.593.996;3.36;2.22;1000
1.740.572.596.173;3.28;2.22;1000
1.740.572.598.389;3.36;2.22;1000
1.740.572.600.569;3.28;2.22;1000
1.740.572.602.789;3.28;2.22;1000
1.740.572.604.946;3.28;2.22;1000
1.740.572.607.122;3.2;2.22;1000
1.740.572.609.236;3.36;2.22;1000
1.740.572.611.478;3.28;2.23;1000
1.740.572.613.714;3.36;2.22;1000
1.740.572.615.931;3.28;2.22;1000
1.740.572.618.110;3.28;2.22;1000
1.740.572.620.264;3.28;2.22;1000
1.740.572.622.422;3.36;2.22;1000
1.740.572.624.539;3.28;2.22;1000
1.740.572.626.757;3.28;2.22;1000
1.740.572.628.878;3.36;2.22;1000
1.740.572.631.010;3.28;2.22;999.99
1.740.572.633.287;3.28;2.22;999.99
1.740.572.635.408;3.2;2.22;1000
1.740.572.637.583;3.2;2.22;1000
1.740.572.639.799;3.2;2.22;999.99
1.740.572.641.956;3.28;2.22;1000
1.740.572.644.235;3.28;2.22;1000
1.740.572.646.452;3.28;2.22;1000
1.740.572.648.692;3.2;2.22;1000
1.740.572.650.869;3.28;2.22;1000
1.740.572.652.965;3.2;2.22;1000
1.740.572.655.182;3.28;2.22;1000
1.740.572.657.398;3.28;2.22;1000
1.740.572.659.617;3.28;2.22;1000
1.740.572.661.855;3.28;2.22;1000
1.740.572.664.037;3.28;2.22;999.99
1.740.572.666.130;3.36;2.22;1000
1.740.572.668.370;3.28;2.22;1000
1.740.572.670.506;3.28;2.22;1000
1.740.572.672.662;3.36;2.22;1000
1.740.572.674.778;3.2;2.22;1000
1.740.572.676.895;3.2;2.22;1000
1.740.572.679.051;3.28;2.22;1000
1.740.572.681.230;3.28;2.22;999.99
1.740.572.683.492;3.28;2.22;1000
1.740.572.686.088;3.28;2.22;1000
1.740.572.688.163;3.28;2.22;1000
1.740.572.690.403;3.28;2.22;1000
1.740.572.692.621;3.36;2.22;1000
1.740.572.694.777;3.28;2.22;1000
1.740.572.696.901;3.28;2.22;1000
1.740.572.699.112;3.28;2.22;1000
1.740.572.701.290;3.28;2.22;1000
1.740.572.703.469;3.28;2.22;1000
1.740.572.705.627;3.28;2.22;1000
1.740.572.707.841;3.28;2.22;1000
1.740.572.709.999;3.2;2.22;999.99
1.740.572.712.176;3.2;2.21;1000
1.740.572.714.293;3.2;2.22;1000
1.740.572.716.472;3.28;2.22;1000
1.740.572.718.648;3.28;2.22;1000
1.740.572.720.722;3.28;2.22;1000
1.740.572.722.941;3.28;2.22;1000
1.740.572.725.062;3.2;2.22;1000
1.740.572.727.214;3.28;2.22;999.99
1.740.572.729.334;3.28;2.22;1000
1.740.572.731.610;3.28;2.22;999.99
1.740.572.733.887;3.2;2.22;1000
1.740.572.736.106;3.28;2.23;1000
1.740.572.738.264;3.2;2.22;1000
1.740.572.740.541;3.28;2.22;1000
1.740.572.742.660;3.28;2.22;1000
1.740.572.744.875;3.2;2.22;1000
1.740.572.747.153;3.2;2.22;999.99
1.740.572.749.393;3.28;2.22;1000
1.740.572.751.630;3.2;2.22;1000
1.740.572.753.789;3.2;2.22;1000
1.740.572.756.027;3.28;2.22;1000
1.740.572.758.201;3.36;2.22;1000
1.740.572.760.383;3.28;2.23;1000
1.740.572.762.537;3.28;2.22;1000
1.740.572.764.692;3.2;2.22;1000
1.740.572.766.876;3.2;2.22;1000
1.740.572.769.011;3.36;2.22;999.99
1.740.572.771.164;3.28;2.22;1000
1.740.572.773.281;3.28;2.22;1000
1.740.572.775.400;3.2;2.22;1000
1.740.572.777.637;3.2;2.22;1000
1.740.572.779.813;3.2;2.22;1000
1.740.572.781.934;3.28;2.22;1000
1.740.572.784.088;3.28;2.22;1000
1.740.572.786.306;3.2;2.22;1000
1.740.572.788.643;3.28;2.22;1000
1.740.572.790.762;3.2;2.22;1000
1.740.572.792.940;3.36;2.22;1000
1.740.572.795.115;3.2;2.22;1000
1.740.572.797.278;3.2;2.22;1000
1.740.572.799.490;3.2;2.22;999.99
1.740.572.801.672;3.2;2.22;1000
1.740.572.803.886;3.2;2.22;1000
1.740.572.806.123;3.2;2.22;1000
1.740.572.808.301;3.2;2.22;1000
1.740.572.810.517;3.2;2.22;1000
1.740.572.812.736;3.2;2.22;1000
1.740.572.814.854;3.2;2.22;1000
1.740.572.816.969;3.2;2.23;1000
1.740.572.819.089;3.2;2.23;1000
1.740.572.821.304;3.28;2.22;1000
1.740.572.823.422;3.28;2.22;1000
1.740.572.825.578;3.2;2.22;1000
1.740.572.827.697;3.2;2.22;1000
1.740.572.829.830;3.2;2.22;999.99
1.740.572.831.949;3.2;2.22;1000
1.740.572.834.066;3.28;2.23;999.99
1.740.572.836.182;3.2;2.22;1000
1.740.572.838.262;3.28;2.21;1000
1.740.572.840.436;3.2;2.22;1000
1.740.572.842.615;3.2;2.22;1000
1.740.572.844.731;3.2;2.22;1000
1.740.572.846.866;3.28;2.22;1000
1.740.572.849.023;3.2;2.23;999.99
1.740.572.851.143;3.2;2.22;1000
1.740.572.853.320;3.28;2.22;1000
1.740.572.855.499;3.2;2.22;999.99
1.740.572.857.674;3.28;2.23;1000
1.740.572.859.890;3.2;2.23;1000
1.740.572.862.008;3.2;2.22;1000
1.740.572.864.184;3.2;2.22;1000
1.740.572.866.302;3.2;2.22;1000
1.740.572.868.419;3.2;2.21;1000
1.740.572.870.536;3.2;2.22;1000
1.740.572.872.614;3.28;2.22;1000
1.740.572.874.851;3.28;2.22;1000
1.740.572.877.006;3.2;2.22;1000
1.740.572.879.164;3.2;2.22;1000
1.740.572.881.282;3.2;2.22;1000
1.740.572.883.437;3.28;2.22;1000
1.740.572.885.616;3.2;2.22;1000
1.740.572.887.800;3.2;2.22;1000
1.740.572.889.912;3.2;2.22;1000
1.740.572.892.149;3.2;2.22;1000
1.740.572.894.365;3.2;2.22;1000
1.740.572.896.522;3.2;2.22;1000
1.740.572.898.699;3.2;2.22;1000
1.740.572.900.818;3.2;2.22;1000
1.740.572.902.935;3.28;2.22;1000
1.740.572.905.059;3.28;2.22;1000
1.740.572.907.231;3.28;2.22;1000
1.740.572.909.384;3.2;2.23;1000
1.740.572.911.505;3.2;2.22;1000
1.740.572.913.640;3.2;2.22;1000
1.740.572.915.764;3.28;2.23;1000
1.740.572.917.974;3.2;2.22;1000
1.740.572.920.093;3.28;2.22;1000
1.740.572.922.211;3.2;2.22;1000
1.740.572.924.324;3.2;2.22;1000
1.740.572.926.520;3.2;2.22;1000
1.740.572.928.677;3.28;2.22;1000
1.740.572.930.834;3.28;2.22;1000
1.740.572.932.953;3.2;2.22;1000
1.740.572.935.109;3.2;2.22;1000
1.740.572.937.288;3.36;2.22;999.99
1.740.572.939.444;3.28;2.23;1000
1.740.572.941.600;3.2;2.22;1000
1.740.572.943.689;3.2;2.22;1000
1.740.572.945.915;3.2;2.22;1000
1.740.572.948.094;3.2;2.22;1000
1.740.572.950.211;3.2;2.22;1000
1.740.572.952.391;3.2;2.22;1000
1.740.572.954.564;3.2;2.22;1000
1.740.572.956.720;3.28;2.23;1000
1.740.572.958.837;3.2;2.22;1000
1.740.572.960.994;3.2;2.22;999.99
1.740.572.963.114;3.28;2.22;999.99
1.740.572.965.271;3.2;2.22;1000
1.740.572.967.386;3.28;2.22;1000
1.740.572.969.504;3.28;2.22;1000
1.740.572.971.660;3.28;2.23;1000
1.740.572.973.781;3.2;2.22;1000
1.740.572.975.894;3.2;2.22;1000
1.740.572.977.972;3.2;2.22;1000
1.740.572.980.091;3.36;2.22;1000
1.740.572.982.267;3.2;2.22;1000
1.740.572.984.403;3.28;2.22;1000
1.740.572.986.522;3.2;2.22;1000
1.740.572.988.735;3.2;2.22;999.99
1.740.572.990.855;3.28;2.22;1000
1.740.572.993.039;3.2;2.22;999.99
1.740.572.995.167;3.2;2.22;1000
1.740.572.997.323;3.36;2.22;1000
1.740.572.999.485;3.2;2.22;1000
1.740.573.001.600;3.2;2.22;1000
1.740.573.003.756;3.2;2.22;1000
1.740.573.006.033;3.2;2.23;1000
1.740.573.008.156;3.2;2.22;1000
1.740.573.010.367;3.36;2.22;1000
1.740.573.012.487;3.2;2.22;1000
1.740.573.014.665;3.36;2.23;1000
1.740.573.016.843;3.28;2.22;1000
1.740.573.018.974;3.2;2.23;1000
1.740.573.021.254;3.2;2.22;1000
1.740.573.023.374;3.36;2.23;1000
1.740.573.025.488;3.28;2.22;1000
1.740.573.027.665;3.2;2.22;1000
1.740.573.029.790;3.2;2.22;1000
1.740.573.031.959;3.2;2.22;1000
1.740.573.034.140;3.2;2.22;1000
1.740.573.036.256;3.2;2.22;1000
1.740.573.038.347;3.28;2.22;1000
1.740.573.040.932;3.28;2.22;1000
1.740.573.043.057;3.2;2.22;1000
1.740.573.045.224;3.2;2.22;1000
1.740.573.047.442;3.2;2.23;1000
1.740.573.049.661;3.28;2.22;1000
1.740.573.051.878;3.2;2.22;1000
1.740.573.053.997;3.28;2.22;1000
1.740.573.056.111;3.2;2.23;1000
1.740.573.058.410;3.2;2.23;1000
1.740.573.060.589;3.28;2.22;999.99
1.740.573.062.704;3.28;2.23;1000
1.740.573.064.862;3.28;2.23;1000
1.740.573.067.039;3.2;2.22;1000
1.740.573.069.218;3.28;2.22;1000
1.740.573.071.372;3.28;2.22;1000
1.740.573.073.490;3.2;2.22;1000
1.740.573.075.619;3.2;2.22;1000
1.740.573.077.745;3.2;2.22;1000
1.740.573.079.860;3.28;2.22;1000
1.740.573.082.017;3.2;2.22;1000
1.740.573.084.135;3.36;2.22;1000
1.740.573.086.353;3.2;2.22;1000
1.740.573.088.570;3.28;2.22;1000
1.740.573.090.749;3.2;2.22;1000
1.740.573.092.904;3.2;2.22;1000
1.740.573.095.084;3.2;2.22;1000
1.740.573.097.239;3.2;2.22;1000
1.740.573.099.360;3.2;2.22;1000
1.740.573.101.494;3.2;2.22;1000
1.740.573.103.649;3.28;2.22;1000
1.740.573.105.807;3.28;2.22;1000
1.740.573.108.025;3.28;2.22;1000
1.740.573.110.305;3.2;2.22;1000
1.740.573.112.424;3.2;2.22;1000
1.740.573.114.539;3.2;2.22;1000
1.740.573.116.695;3.28;2.22;1000
1.740.573.118.851;3.2;2.22;1000
1.740.573.121.030;3.36;2.22;1000
1.740.573.123.148;3.2;2.22;1000
1.740.573.125.303;3.2;2.22;1000
1.740.573.127.443;3.28;2.22;1000
1.740.573.129.658;3.2;2.22;1000
1.740.573.131.875;3.2;2.22;1000
1.740.573.134.034;3.28;2.22;1000
1.740.573.136.176;3.28;2.22;1000
1.740.573.138.307;3.2;2.21;1000
1.740.573.140.523;3.2;2.22;1000
1.740.573.142.763;3.28;2.22;1000
1.740.573.144.926;3.28;2.22;1000
1.740.573.147.135;3.2;2.22;1000
1.740.573.149.254;3.2;2.22;1000
1.740.573.151.410;3.28;2.22;1000
1.740.573.153.530;3.2;2.22;1000
1.740.573.155.646;3.2;2.22;1000
1.740.573.157.862;3.2;2.22;1000
1.740.573.160.020;3.2;2.21;1000
1.740.573.162.142;3.2;2.22;1000
1.740.573.164.355;3.2;2.22;1000
1.740.573.166.531;3.2;2.22;1000
1.740.573.168.748;3.2;2.22;1000
1.740.573.170.928;3.28;2.22;999.99
1.740.573.173.081;3.28;2.22;1000
1.740.573.175.300;3.28;2.22;999.99
1.740.573.177.478;3.28;2.22;999.99
1.740.573.179.636;3.28;2.23;1000
1.740.573.181.797;3.2;2.22;999.99
1.740.573.183.970;3.28;2.22;1000
1.740.573.186.186;3.2;2.22;1000
1.740.573.188.343;3.2;2.22;1000
1.740.573.190.561;3.2;2.22;1000
1.740.573.192.842;3.28;2.22;999.99
1.740.573.195.017;3.2;2.22;1000
1.740.573.197.178;3.2;2.22;1000
1.740.573.199.331;3.2;2.22;1000
1.740.573.201.407;3.28;2.22;1000
1.740.573.203.530;3.2;2.22;1000
1.740.573.205.646;3.2;2.22;1000
1.740.573.207.820;3.2;2.22;1000
1.740.573.209.938;3.2;2.22;1000
1.740.573.212.011;3.2;2.22;1000
1.740.573.214.132;3.28;2.21;999.99
1.740.573.216.309;3.28;2.22;1000
1.740.573.218.524;3.2;2.22;1000
1.740.573.220.743;3.2;2.22;1000
1.740.573.222.958;3.2;2.22;1000
1.740.573.225.158;3.28;2.22;1000
1.740.573.227.280;3.2;2.22;1000
1.740.573.229.491;3.28;2.22;1000
1.740.573.231.708;3.28;2.22;1000
1.740.573.233.827;3.2;2.22;1000
1.740.573.235.983;3.2;2.22;1000
1.740.573.238.165;3.2;2.22;1000
1.740.573.240.298;3.36;2.23;1000
1.740.573.242.539;3.28;2.22;1000
1.740.573.244.653;3.2;2.22;1000
1.740.573.246.808;3.2;2.23;1000
1.740.573.249.026;3.28;2.22;1000
1.740.573.251.183;3.2;2.22;1000
1.740.573.253.303;3.2;2.22;1000
1.740.573.255.460;3.28;2.23;1000
1.740.573.257.577;3.2;2.22;1000
1.740.573.259.691;3.2;2.22;1000
1.740.573.261.874;3.2;2.22;1000
1.740.573.264.045;3.2;2.22;1000
1.740.573.266.165;3.2;2.22;1000
1.740.573.268.333;3.2;2.22;1000
1.740.573.270.458;3.2;2.22;1000
1.740.573.272.579;3.2;2.22;1000
1.740.573.274.699;3.2;2.22;1000
1.740.573.276.771;3.2;2.22;1000
1.740.573.278.923;3.28;2.22;1000
1.740.573.281.091;3.2;2.23;1000
1.740.573.283.298;3.2;2.22;1000
1.740.573.285.419;3.2;2.22;1000
1.740.573.287.537;3.2;2.22;1000
1.740.573.289.711;3.2;2.23;1000
1.740.573.291.828;3.36;2.22;1000
1.740.573.293.942;3.2;2.22;1000
1.740.573.296.100;3.28;2.22;1000
1.740.573.298.278;3.28;2.23;1000
1.740.573.300.478;3.2;2.22;999.99
1.740.573.302.593;3.2;2.23;1000
1.740.573.304.717;3.2;2.22;1000
1.740.573.306.839;3.28;2.22;1000
1.740.573.309.004;3.2;2.22;1000
1.740.573.311.165;3.2;2.22;1000
1.740.573.313.379;3.28;2.22;1000
1.740.573.315.496;3.2;2.22;1000
1.740.573.317.653;3.2;2.22;1000
1.740.573.319.773;3.2;2.22;1000
1.740.573.321.891;3.2;2.22;1000
1.740.573.324.043;3.2;2.22;1000
1.740.573.326.161;3.2;2.22;1000
1.740.573.328.316;3.2;2.22;1000
1.740.573.330.534;3.2;2.23;1000
1.740.573.332.691;3.2;2.22;1000
1.740.573.334.771;3.2;2.22;1000
1.740.573.336.949;3.36;2.22;1000
1.740.573.339.140;3.2;2.22;1000
1.740.573.341.342;3.2;2.22;1000
1.740.573.343.457;3.2;2.22;1000
1.740.573.345.615;3.28;2.22;1000
1.740.573.347.852;3.28;2.22;1000
1.740.573.350.561;3.2;2.22;1000
1.740.573.352.732;3.28;2.22;1000
1.740.573.354.849;3.2;2.22;1000
1.740.573.357.027;3.2;2.22;1000
1.740.573.359.204;3.28;2.22;1000
1.740.573.361.322;3.2;2.22;1000
1.740.573.363.396;3.28;2.22;1000
1.740.573.365.552;3.2;2.22;1000
1.740.573.367.792;3.2;2.22;1000
1.740.573.370.008;3.2;2.22;1000
1.740.573.372.127;3.2;2.22;1000
1.740.573.374.244;3.2;2.22;1000
1.740.573.376.401;3.36;2.22;1000
1.740.573.378.516;3.2;2.23;1000
1.740.573.380.734;3.28;2.22;1000
1.740.573.382.851;3.2;2.22;1000
1.740.573.384.972;3.2;2.22;1000
1.740.573.387.105;3.2;2.22;1000
1.740.573.389.223;3.2;2.22;1000
1.740.573.391.400;3.2;2.22;1000
1.740.573.393.474;3.2;2.22;1000
1.740.573.395.753;3.2;2.22;1000
1.740.573.397.912;3.2;2.22;1000
1.740.573.400.068;3.2;2.22;1000
1.740.573.402.186;3.2;2.22;1000
1.740.573.404.343;3.2;2.22;1000
1.740.573.406.461;3.2;2.23;1000
1.740.573.408.640;3.28;2.22;1000
1.740.573.410.718;3.28;2.22;1000
1.740.573.412.950;3.2;2.22;999.99
1.740.573.415.107;3.2;2.22;1000
1.740.573.417.287;3.28;2.22;1000
1.740.573.419.464;3.2;2.22;1000
1.740.573.421.620;3.2;2.22;1000
1.740.573.423.703;3.28;2.22;1000
1.740.573.425.822;3.2;2.21;1000
1.740.573.428.053;3.2;2.23;1000
1.740.573.430.207;3.2;2.22;1000
1.740.573.432.387;3.2;2.22;1000
1.740.573.434.625;3.2;2.22;1000
1.740.573.436.782;3.28;2.22;1000
1.740.573.438.938;3.2;2.22;1000
1.740.573.441.053;3.36;2.22;999.99
1.740.573.443.238;3.2;2.22;1000
1.740.573.445.431;3.36;2.22;999.99
1.740.573.447.586;3.28;2.22;1000
1.740.573.449.705;3.28;2.22;1000
1.740.573.451.825;3.2;2.22;1000
1.740.573.454.002;3.28;2.22;1000
1.740.573.456.275;3.28;2.22;1000
1.740.573.458.492;3.2;2.22;1000
1.740.573.460.673;3.2;2.22;1000
1.740.573.462.827;3.28;2.22;1000
1.740.573.465.007;3.36;2.22;1000
1.740.573.467.165;3.2;2.22;1000
1.740.573.469.379;3.36;2.22;1000
1.740.573.471.557;3.2;2.23;1000
1.740.573.473.734;3.28;2.23;1000
1.740.573.475.893;3.2;2.23;1000
1.740.573.478.049;3.28;2.22;1000
1.740.573.480.205;3.2;2.23;1000
1.740.573.482.363;3.28;2.22;999.99
1.740.573.484.482;3.28;2.23;1000
1.740.573.486.599;3.2;2.23;1000
1.740.573.488.717;3.2;2.22;1000
1.740.573.490.891;3.2;2.23;999.99
1.740.573.493.008;3.2;2.23;1000
1.740.573.495.165;3.2;2.22;1000
1.740.573.497.284;3.2;2.23;1000
1.740.573.499.520;3.2;2.22;1000
1.740.573.501.698;3.28;2.22;1000
1.740.573.503.815;3.2;2.23;1000
1.740.573.506.033;3.28;2.23;1000
1.740.573.508.101;3.2;2.23;1000
1.740.573.510.326;3.28;2.23;1000
1.740.573.512.444;3.28;2.23;1000
1.740.573.514.599;3.2;2.22;1000
1.740.573.516.756;3.2;2.22;1000
1.740.573.518.876;3.2;2.23;1000
1.740.573.521.090;3.2;2.23;1000
1.740.573.523.274;3.28;2.23;1000
1.740.573.525.449;3.28;2.23;999.99
1.740.573.527.663;3.2;2.22;1000
1.740.573.529.883;3.28;2.22;1000
1.740.573.531.999;3.2;2.23;1000
1.740.573.534.158;3.36;2.23;1000
1.740.573.536.314;3.2;2.23;1000
1.740.573.538.529;3.28;2.22;1000
1.740.573.540.726;3.2;2.23;1000
1.740.573.542.884;3.28;2.23;1000
1.740.573.545.004;3.2;2.22;1000
1.740.573.547.139;3.28;2.22;1000
1.740.573.549.295;3.28;2.22;1000
1.740.573.551.474;3.28;2.22;1000
1.740.573.553.591;3.2;2.22;1000
1.740.573.555.712;3.28;2.22;1000
1.740.573.557.983;3.28;2.22;1000
1.740.573.560.101;3.2;2.22;1000
1.740.573.562.219;3.2;2.22;999.99
1.740.573.564.316;3.28;2.21;1000
1.740.573.566.433;3.28;2.22;1000
1.740.573.568.612;3.2;2.22;1000
1.740.573.570.792;3.2;2.22;1000
1.740.573.572.922;3.2;2.22;1000
1.740.573.575.140;3.28;2.22;1000
1.740.573.577.262;3.2;2.22;1000
1.740.573.579.434;3.2;2.22;1000
1.740.573.581.618;3.2;2.22;1000
